x 1.010101
w 46.123196
wstd 0.008962
# theta(rad)	count	mean(uA)	median(uA)	std dev(uA)
0.000500	15	0.004964	0.002290	0.010084
0.001500	25	0.001344	0.001027	0.009078
0.002500	16	0.002291	0.000712	0.010811
0.003500	15	0.004606	0.002922	0.012695
0.004500	15	0.004732	0.001974	0.012522
0.005500	15	0.002838	0.003553	0.011463
0.006500	15	0.004711	0.004500	0.010392
0.007500	19	0.002640	0.001974	0.012674
0.008500	15	-0.001392	-0.004655	0.011912
0.009500	15	0.004269	0.009868	0.011388
0.010500	15	0.006963	0.005447	0.011312
0.011500	15	0.001912	0.003237	0.011086
0.012500	15	0.002985	0.003553	0.011478
0.013500	25	0.001912	0.001974	0.010652
0.014500	16	0.000456	-0.000393	0.009086
0.015500	15	0.002965	-0.000236	0.012690
0.016500	15	0.003764	0.003869	0.013595
0.017500	15	0.006626	0.006395	0.010712
0.018500	15	0.001765	0.005132	0.011424
0.019500	19	0.001743	0.002290	0.012147
0.020500	15	0.000165	0.001974	0.011426
0.021500	15	0.004438	0.000712	0.014039
0.022500	15	0.002438	0.002606	0.011712
0.023500	15	0.004038	0.001343	0.013088
0.024500	21	0.003268	0.005132	0.012254
0.025500	19	0.003554	0.007342	0.010559
0.026500	16	0.002390	0.001027	0.010660
0.027500	15	-0.000066	-0.001182	0.010435
0.028500	15	0.003428	-0.000551	0.013083
0.029500	15	0.006332	0.001027	0.012298
0.030500	15	0.003491	-0.001182	0.013052
0.031500	19	0.001261	0.001343	0.009619
0.032500	15	0.003785	0.001974	0.011345
0.033500	15	0.002459	0.004185	0.010466
0.034500	15	0.002754	0.003869	0.011527
0.035500	15	0.002354	0.001027	0.011739
0.036500	21	0.002501	0.002606	0.011603
0.037500	19	0.004767	0.005763	0.011659
0.038500	16	0.000298	-0.001498	0.011033
0.039500	15	-0.001371	-0.001498	0.012626
0.040500	15	0.003427	0.000396	0.012552
0.041500	15	0.003006	0.004500	0.011202
0.042500	15	0.004354	0.004185	0.013299
0.043500	19	-0.000118	0.003237	0.011989
0.044500	15	0.001344	-0.000236	0.010766
0.045500	15	-0.001140	-0.002129	0.010637
0.046500	15	0.001407	-0.003392	0.012440
0.047500	15	0.001344	0.002290	0.011319
0.048500	21	0.002261	0.001974	0.011510
0.049500	19	0.003371	0.004500	0.011653
0.050500	16	-0.000452	-0.001340	0.013314
0.051500	15	-0.000150	-0.004655	0.011815
0.052500	15	0.000418	-0.000867	0.012762
0.053500	15	0.003301	0.001659	0.015079
0.054500	16	0.001048	-0.000551	0.012904
0.055500	18	0.001379	0.002448	0.012079
0.056500	15	0.002501	0.001027	0.011261
0.057500	15	-0.000761	-0.002761	0.008742
0.058500	15	-0.000740	-0.002129	0.012606
0.059500	15	0.000902	0.002922	0.012369
0.060500	21	0.000668	-0.000867	0.016743
0.061500	19	0.002557	0.006079	0.009716
0.062500	16	0.001363	0.002764	0.009468
0.063500	15	-0.001582	-0.000551	0.010478
0.064500	15	0.001954	0.000396	0.008875
0.065500	15	0.004101	0.002606	0.012522
0.066500	16	0.001659	-0.000551	0.009735
0.067500	18	0.002203	0.000238	0.009784
0.068500	15	0.002354	0.003553	0.011854
0.069500	15	-0.000824	-0.000867	0.010238
0.070500	15	-0.000277	-0.000867	0.009459
0.071500	15	0.002501	0.001027	0.010197
0.072500	21	0.002081	0.000712	0.012047
0.073500	20	0.003143	0.004027	0.008253
0.074500	15	0.001344	0.000712	0.012611
0.075500	15	0.002165	0.004185	0.010805
0.076500	15	0.000628	0.001659	0.009941
0.077500	15	-0.000887	-0.002129	0.010186
0.078500	16	0.002330	0.001817	0.010290
0.079500	18	0.004746	0.002448	0.010763
0.080500	15	0.002670	0.001027	0.008456
0.081500	15	0.000818	0.002922	0.010473
0.082500	15	-0.000256	0.001027	0.009742
0.083500	15	0.001933	0.000396	0.011912
0.084500	21	0.002471	0.003237	0.011930
0.085500	20	0.003269	0.005132	0.009259
0.086500	15	0.002312	0.000396	0.010784
0.087500	15	-0.000529	-0.001182	0.009973
0.088500	15	0.001428	0.001974	0.009215
0.089500	15	0.002312	0.003553	0.009761
0.090500	16	-0.001359	-0.005128	0.012884
0.091500	18	0.004887	0.003869	0.011246
0.092500	15	0.002880	-0.000551	0.008301
0.093500	15	0.003448	0.006079	0.009210
0.094500	15	0.000670	0.002922	0.008443
0.095500	15	0.000670	-0.001814	0.012390
0.096500	25	0.001634	0.001974	0.009781
0.097500	16	0.004264	0.003395	0.009774
0.098500	15	0.003701	-0.000236	0.008985
0.099500	15	0.000291	-0.000236	0.009787
0.100500	15	0.002648	0.002606	0.008454
0.101500	15	0.002922	0.002606	0.011131
0.102500	16	0.002390	-0.000709	0.012005
0.103500	18	0.004589	0.007342	0.010359
0.104500	15	0.002691	0.001974	0.009131
0.105500	15	0.002649	0.001027	0.013367
0.106500	15	0.002164	0.001343	0.008473
0.107500	21	0.001344	0.002606	0.010561
0.108500	19	0.002241	-0.000867	0.013311
0.109500	16	0.003830	0.003869	0.008720
0.110500	15	0.003280	0.001027	0.010486
0.111500	15	0.003364	0.006710	0.009658
0.112500	15	0.001659	0.001659	0.009922
0.113500	15	0.002628	0.001343	0.009970
0.114500	16	0.000614	0.001027	0.010369
0.115500	18	0.005255	0.006552	0.012907
0.116500	15	0.004059	0.003869	0.009472
0.117500	15	0.003133	0.001974	0.009190
0.118500	15	0.004206	0.006710	0.009108
0.119500	21	0.003283	0.006710	0.008751
